### header ###
fiducial parameters:
Omega_m = 0.31
Omega_nu = 0
Omega_de = 0.69
Omega_k = 0
H_0 = 100
w_de = -1
zeff = 0
beta = 0
fgrowth = 0
b_1 = 2
gamma = 0.55
Lx = 3500 Ly = 3500 Lz = 3500
nx = 700 ny = 700 nz = 700
xoffset = 1383.5 yoffset = 32.0583 zoffset = 357.098
bins = 400 dk = 0.001
kx_ny = 0.628319 ky_ny = 0.628319 kz_ny = 0.628319
############################
A(data) = 3.31561 (not used)
A(ran) = 3.31569 (used)
Ngal = 158267
weighted Ngal = 0
Nran = 8008456
weighted Nran = 0
SN(data) = 7724.91
SN(ran) = 131.652
SN(data+ran) = 7856.56
############################
13 columns: k_central k_mean P_0(k) sigma^{lin}_{P_0(k)} P^img_1(k) sigma^{lin}_{P_1(k)} P_2(k) sigma^{lin}_{P_2(k)} P^img_3(k) sigma^{lin}_{P_3(k)} P_4(k) sigma^{lin}_{P_4(k)} N_modes
### header ###
0.0005 0 0 0 0 0 0 0 0 0 0 0 0
0.0015 0.0017952 20291.7 23617.8 -24082.7 28207.2 -44280.2 44859.4 49161.6 54934.7 15256.3 60815.7 3
0.0025 0.00253879 29900 14566.1 -14893.1 30147.1 3296.78 37345.5 -55099.8 45492.4 -22068.1 47692.6 6
0.0035 0.00331552 36672.7 10790.8 66.5679 13147.9 -29132.3 21470.1 -14739.3 24620.2 6111.81 27801.4 7
0.0045 0.00420575 38934.7 8581.3 2767.74 14086.5 -5902.58 18819.2 -25974.2 22261.6 2595.68 24455.4 24
0.0055 0.00557378 32769.4 5873.3 4355.13 10934.7 6621.15 14059.2 -17962.9 16351.5 3308.4 17808.3 45
0.0065 0.00659388 42584.5 6698.65 -6269.37 13575.4 23411.8 14211 7180.97 17344.7 -31197.9 20225.5 40
0.0075 0.00754703 41784.6 5573 -12523.2 9097.14 -8165.18 10263.8 17027.2 13311.8 -19412.1 15227.5 57
0.0085 0.00846663 69519 8043.98 -18318.7 14215.8 364.163 15951.2 -3635.12 19945.4 -32959.2 22827.1 75
0.0095 0.00948925 82021.8 8419.1 -12377.6 14433.4 -6128.51 16974 -20133 20955.5 -29153.3 23738.6 112
0.0105 0.0105443 101909 9446.74 -493.155 15577.8 -16371.6 18082.5 -16990.6 22803.1 -41194.4 26038.6 105
0.0115 0.0114567 93757.7 8019.74 5010.41 14539 10680.3 16189.6 -35241.6 20212.8 -44724.7 23052.5 144
0.0125 0.0124909 90178.4 7133.19 14398.8 13559.2 25226.4 14923.9 -21495.2 18332 -44307 20964.8 169
0.0135 0.0133993 76179.5 5789.71 12655.4 12341.4 55710.9 14178.9 -20524.7 16486.8 -28113.9 18409.9 180
0.0145 0.0144887 61163.8 4397.26 8150.37 9752.86 55134.9 11432.1 1242.71 13043.4 -19340.8 14427.3 267
0.0155 0.0155005 62525.6 4284.29 801.643 9364.18 56862 10387.3 19078.2 12053.7 -38869.2 13712.2 238
0.0165 0.0165335 57583.5 3576.34 -1865.73 7837.61 45760.2 9563.38 19120.9 10888.9 -4768.14 11816.8 315
0.0175 0.0174787 63214.2 3629.16 -948.096 7698.4 40313.2 9492.61 22109.4 10855.5 -1744.16 11779.2 297
0.0185 0.0184418 62714.6 3395.28 691.178 7232.8 36521.1 9836.12 7527.28 10939.4 33629.1 11538 388
0.0195 0.0194759 54500.9 2728.66 845.653 5330.33 17794.5 6856.14 17794.6 7846.99 6766.99 8517.53 399
0.0205 0.0204543 65194.9 3121.67 -2312.37 6218.25 24142.5 8485.64 11110.2 9481.32 29652.2 10122 462
0.0215 0.0215477 60680.5 2740.87 -1212.23 5215.29 14597.3 7161.42 1594.37 8014.86 25102.5 8628.61 571
0.0225 0.0225534 60415 2588.43 1987.41 4840.23 12256.9 6343.54 553.993 7238.84 10302.6 7901.37 510
0.0235 0.0234893 59410.4 2439.44 -948.749 4564.17 12007.1 6060.99 -3606.83 6881.63 13608.4 7486.91 555
0.0245 0.0243964 63669.1 2499.67 -583.927 4506.15 6797.13 5535.67 599.848 6547.16 -7893.5 7307.81 592
0.0255 0.025473 61693.5 2333.41 1267.27 4318.82 11188.4 5308.36 -7270.63 6237.66 -6257.81 6930.82 837
0.0265 0.026529 60805.1 2234.88 2396.67 4197.56 13996.5 4835.82 -11030.7 5832.31 -20449.1 6586.37 723
0.0275 0.0274997 58094 2050.8 1050.05 3839.06 12692.3 4434.89 -44.2049 5340.68 -18980.3 6034.2 826
0.0285 0.0284809 57051.5 1946.53 -635.89 3653.06 12954.2 4181.48 811.952 5053.2 -20495.4 5723.88 831
0.0295 0.029469 56735.8 1868.61 -1706.75 3451.77 10055.8 3938.56 4260.82 4793.65 -21267.4 5442.75 996
0.0305 0.0305325 58904.7 1866.65 952.232 3342.94 4917.71 3906.42 3963.83 4747 -18158.9 5372.02 1041
0.0315 0.0315051 56119.3 1735.07 2905.04 3175.33 8286.33 3564.9 -5915.86 4390.58 -24326.2 5012.17 1036
0.0325 0.0324619 53725.5 1591.47 981.698 2845.06 4426.02 3442.54 592.206 4111.24 -9988.02 4612.22 1059
0.0335 0.0334508 50462.5 1465.71 2433.58 2728.26 10129.6 3096.48 -885.759 3767.89 -19764.4 4282.44 1302
0.0345 0.034512 47222.4 1329.38 3356.52 2446.12 7827.04 2808.38 -4523.51 3412.69 -16661.9 3868.77 1339
0.0355 0.0355335 43217.5 1192.39 3032.28 2312.08 14472.2 2633.97 659.748 3156.14 -16157 3569.1 1365
0.0365 0.0364712 37564.9 1004.83 2512.94 1946.12 12358.1 2259.41 -2030.62 2686.95 -11225.2 3019.34 1308
0.0375 0.0374489 36610.9 958.803 1029.74 1890.32 14337.1 2170.62 3518.33 2579.63 -12634.4 2904.03 1579
0.0385 0.0384753 36517.8 926.361 304.289 1818.09 13530.6 2136.89 1183.99 2518.8 -9114.39 2814.79 1662
0.0395 0.0395024 35950 884.82 395.825 1704.06 11033.4 2011.33 -345.079 2378.97 -8517.65 2661.09 1683
0.0405 0.0405035 36355.1 875.239 380.603 1719.25 13447.6 2048.11 -12.7291 2400.89 -7066.18 2670.84 1822
0.0415 0.0415245 35429.8 832.059 -316.078 1649.28 13913.2 2012.82 -876.335 2333.4 -3182.86 2572.24 1887
0.0425 0.0425015 38052.8 872.709 -721.299 1709.74 13704.8 2046.94 4098.9 2397.52 -6656.39 2662.89 1920
0.0435 0.0434921 37247.1 833.172 -535.363 1645.97 13929.5 2061.63 4101.05 2370.47 820.768 2592.88 2005
0.0445 0.0444852 37964 823.755 862.466 1566.73 9695.17 1986.41 1991.59 2289.41 1697.21 2512.25 2151
0.0455 0.0454803 35973.8 772.849 1659.1 1554.16 14771.2 2049.28 -263.081 2309.48 10193.4 2482.92 2274
0.0465 0.0464867 34469.3 725.093 2077.67 1463.89 14649.6 1913.41 1763.13 2161.13 8326.21 2327.07 2311
0.0475 0.0474925 31620.3 660.845 1333.71 1384.03 16730.7 1865.88 2012.34 2081.46 14433.7 2207.77 2568
0.0485 0.0485184 30521.2 618.703 2.62447 1250.29 12590.1 1701.92 2748.82 1899.36 14049.5 2023.99 2493
0.0495 0.0494948 31198 627.105 31.6877 1310.07 16019.1 1793.15 2818.61 1993.33 17032.1 2107.55 2644
0.0505 0.0505063 29830.7 579.572 13.0668 1158.7 11276.1 1588.31 552.938 1770.18 14405.7 1887.73 2829
0.0515 0.0514906 31203.9 595.274 -363.949 1195.83 12267.5 1635.68 2600.6 1823.76 14942.5 1943.65 2784
0.0525 0.052493 31533.1 582.067 -1249.93 1105.06 7503.5 1497.07 1446.44 1683.93 10846.5 1818.8 3055
0.0535 0.0534895 32884.9 596.171 -207.866 1140.94 8531.77 1545.1 283.42 1736.34 11596.2 1872.7 3009
0.0545 0.0544861 32286.2 574.054 969.266 1103.25 8924.93 1464.35 -2574.67 1656.66 8463.37 1793.26 3336
0.0555 0.0555087 31089.3 542.655 868.583 1052.2 9615.69 1354.79 -1849.66 1547.17 4077.68 1684.98 3349
0.0565 0.0564767 30571.5 530.63 1574.25 1082.37 14322.5 1389.83 -2191.8 1576.4 5034.73 1702.57 3324
0.0575 0.0574797 29175 493.517 345.035 977.114 11069.7 1229.09 -1079.41 1410.04 1251.29 1540.22 3639
0.0585 0.0584928 28884.6 485.316 -26.6353 997.461 14573.3 1251.75 1894.67 1427.88 1592.92 1551.12 3846
0.0595 0.0595102 29105.1 477.758 -104.701 961.979 12648.3 1207.55 685.787 1382.08 1296.18 1506.44 3787
0.0605 0.0604947 29012.4 469.866 -21.8975 954.736 13636.2 1185.13 720.764 1359.11 -71.8484 1484.44 3930
0.0615 0.0614831 28720.7 456.105 1083.23 917.843 12406.8 1153.58 -246.585 1319.9 1440.84 1438.26 4083
0.0625 0.062491 28019 437.968 260.846 881.611 12227.6 1099.09 -575.108 1260.86 354.452 1377.3 4303
0.0635 0.063506 28116.7 435.557 21.5626 898.265 14454.2 1132.65 1397.08 1289.38 2265.5 1397.81 4470
0.0645 0.0645175 27744.9 419.666 120.648 841.204 11641 1056.02 1256.05 1209.64 1158.82 1319.39 4479
0.0655 0.0655028 27427.3 408.409 317.599 818.474 11449.7 1031.53 360.802 1180.02 1643.82 1285.65 4636
0.0665 0.0664888 26930.7 394.498 16.0409 785.516 10758.7 982.139 988.82 1127.9 518.192 1233.11 4653
0.0675 0.0674966 26696.4 384.383 394.286 755.762 9678.05 934.453 -407.365 1080.02 -998.228 1187.21 5220
0.0685 0.0685273 26359.4 374.236 437.838 740.83 9976.86 932.472 261.095 1069.49 1198.72 1168.09 5029
0.0695 0.0694932 25157.3 351.659 412.204 685.858 8578.84 833.851 520.287 971.552 -2848.2 1074.85 5040
0.0705 0.0704803 25639.9 353.327 73.9566 695.313 9277.69 869.669 850.059 1000.82 337.826 1096.18 5475
0.0715 0.0714879 24820.3 336.054 374.695 640.844 6724.61 776.541 1158.83 910.907 -3432.96 1012.05 5509
0.0725 0.0724982 24527.6 328.864 703.919 645.971 8840.74 796.367 -1000.29 921.649 -1231.75 1014.14 5916
0.0735 0.0735127 22810.6 302.099 631.52 595.846 8573.06 728.894 -507.324 845.184 -1860.18 931.684 5721
0.0745 0.0744914 22911.9 301.537 463.79 609.503 10584.3 739.414 -764.275 855.329 -2492.54 942.041 6028
0.0755 0.0754916 22314.2 288.596 118.498 574.025 9101.69 693.237 -390.18 806.071 -2977.99 891.164 6183
0.0765 0.0764884 22207.7 285.568 452.27 581.003 10872.9 697.574 457.176 808.517 -3423.5 892.905 6330
0.0775 0.0774996 21896.7 276.751 284.876 560.501 10119.1 690.12 595.119 794.028 -912.322 869.988 6583
0.0785 0.0784865 21845 273.116 129.936 556.065 10522.5 682.961 1201.35 785.652 -1118.16 860.79 6549
0.0795 0.0794732 21283.9 261.405 185.29 523.806 8999.42 649.687 1642.26 747.355 -296.987 818.184 6828
0.0805 0.0804811 20795.2 252.42 459.09 509.136 9120.96 641.119 807.871 732.82 1245.02 797.747 7147
0.0815 0.0814996 20131.7 240.434 235.728 477.903 7842.21 604.738 691.884 691.854 1458.62 753.918 7386
0.0825 0.0825061 20373 241.282 165.986 487.175 8878.67 623.285 549.506 708.687 2783.24 767.702 7227
0.0835 0.0835016 19544.9 227.713 575.57 451.629 7402.7 577.956 277.545 658.919 2401.18 715.997 7798
0.0845 0.0844961 18852.6 217.614 284.889 435.93 7631.47 566.068 278.732 641.327 3806.6 692.812 7371
0.0855 0.0854894 18451.9 210.261 274.49 419.773 7408.69 534.228 448.078 609.551 1889.85 662.631 8256
0.0865 0.086507 18062.9 203.453 546.834 406.089 7198.19 520.131 -14.1374 592.226 2395.72 642.645 8037
0.0875 0.0874906 17223.5 192.271 315.285 387.529 7499.78 489.387 -166.551 558.92 1263.95 607.999 8155
0.0885 0.0884921 17295.7 191.52 119.443 390.822 8118.61 501.478 150.686 568.769 2763.64 614.463 8718
0.0895 0.089499 16248 177.14 271.688 355.073 6838.31 444.118 475.639 509.326 404.574 556.177 8571
0.0905 0.0904919 16821.6 181.2 -10.4435 362.432 6908.92 457.46 404.356 523.234 1102.72 569.997 8932
0.0915 0.0915083 16388.2 173.678 -117.719 338.136 5406.24 420.814 606.214 486.193 -255.018 534.233 9285
0.0925 0.0925082 16627.1 174.113 -29.6304 337.586 5233.17 424.325 746.077 488.843 400.56 535.962 9204
0.0935 0.0935033 16584.3 171.384 -144.028 327.222 4457.46 411.6 829.622 475.497 254.373 522.561 9349
0.0945 0.0944804 16595.8 169.033 -89.7568 312.842 2969.07 396.654 768.721 459.68 345.842 506.778 9564
0.0955 0.0954927 16549.4 166.84 195.997 309.935 3116.1 395.575 688.4 456.806 843.588 502.451 10155
0.0965 0.0964943 16163 161.315 261.023 300.577 3178.37 385.095 -708.255 443.752 1136.24 487.361 9913
0.0975 0.0974914 15956.7 157.771 442.788 296.634 3535.38 379.257 228.528 436.599 1117.93 479.025 10476
0.0985 0.0985024 15340 150.722 270.606 291.037 4580.33 372.219 -675.714 426.39 1485.32 465.573 10575
0.0995 0.0995033 15372.5 149.367 157.655 286.801 4334.44 366.893 -420.531 420.648 1423.28 459.744 10882
0.1005 0.100512 15253.8 147.384 327.407 289.31 5397.35 362.215 -400.483 416.888 247.035 456.667 10875
0.1015 0.101503 15115.2 144.829 175.896 286.618 5695.79 361.893 -688.303 414.67 900.832 452.481 11118
0.1025 0.102508 14911.6 141.835 139.622 283.602 6138.33 356.066 -317.867 408.01 610.983 445.21 11575
0.1035 0.103498 14727.2 138.88 164.034 278.267 6225.75 345.316 -100.567 397.097 -160.408 434.721 11364
0.1045 0.104501 14678.1 137.157 106.309 275.087 6262.11 340.692 600.109 391.986 -288.29 429.314 12093
0.1055 0.10551 14537.1 134.52 109.488 270.155 6215.73 337.649 390.838 387.188 330.189 422.771 12067
0.1065 0.106497 14218.1 129.828 121.795 256.726 5337.41 322.701 702.834 370.393 545.01 404.753 12054
0.1075 0.107499 14058.3 127.3 48.2652 253.044 5468.25 320.979 719.208 366.929 1176.01 399.545 12807
0.1085 0.108501 13776 123.332 168.637 242.924 4969.04 307.769 350.453 352.51 979.593 384.599 12736
0.1095 0.109503 13632.7 120.944 292.555 238.341 4912.64 303.988 -104.428 347.335 1392.9 378.204 12933
0.1105 0.110502 13330.1 117.17 185.197 230.689 4799.46 291.725 67.9552 334.371 833.827 365.035 13428
0.1115 0.111509 13095.7 114.206 -36.8247 226.118 4904.04 288.724 266.521 329.515 1456.23 358.389 13453
0.1125 0.1125 13368.5 115.025 74.2444 222.424 4085.68 280.796 204.682 323.11 547.259 353.994 13668
0.1135 0.113491 13101.7 112.081 113.769 220.32 4654.26 278.536 130.304 319.376 787.029 348.786 13791
0.1145 0.114486 12723.8 107.829 295.766 211.251 4382.08 267.522 -76.8744 306.747 829.145 335.025 14205
0.1155 0.115493 12716.2 106.877 94.1905 209.95 4442.26 268.892 140.188 306.953 1504.21 334.033 14776
0.1165 0.116498 12491.6 104.193 141.211 205.452 4574.82 258.552 246.294 296.777 522.185 324.365 14553
0.1175 0.117473 12217.1 100.879 222.695 197.473 4189.51 249.208 -154.127 286.147 599.772 312.878 14568
0.1185 0.118491 11883.1 97.5067 204.335 192.909 4454.27 244.332 -282.828 279.665 874.029 304.916 16015
0.1195 0.119503 11799.1 95.7064 54.006 186.177 3849.84 232.605 94.9145 268.385 6.70434 294.618 15270
0.1205 0.120507 11826.3 95.2025 -79.0796 185.421 3921.74 230.237 701.287 266.231 -296.9 292.699 15999
0.1215 0.1215 11883.6 94.4851 -217.42 179.618 3059.45 224.24 735.505 260.069 -227.348 286.602 15670
0.1225 0.122507 12105.7 95.2225 -161.994 177.994 2513.37 223.875 357.189 259.76 -30.1987 286.503 16887
0.1235 0.123522 12173.7 94.8483 157.702 174.258 1939.9 217.654 184.065 254.269 -550.882 281.763 16407
0.1245 0.124498 11920.6 92.1561 221.717 170.318 2092.22 214.724 -345.162 249.507 -35.6952 275.548 16306
0.1255 0.125499 11733 90.1188 118.854 168.848 2521.28 211.132 -152.434 245.44 -284.5 271.033 17523
0.1265 0.126501 11491.8 87.7966 256.516 167.27 3045.49 207.321 -284.239 241.002 -542.203 266.057 17154
0.1275 0.127506 11263.8 85.3716 180.064 162.512 2959.05 201.138 -230.516 233.99 -604.637 258.457 18007
0.1285 0.128503 11142.9 83.9946 260.863 161.902 3358.55 199.575 -512.454 231.921 -688.862 255.953 17496
0.1295 0.129499 10805.8 81.2133 359.728 159.719 3970.55 194.952 -633.766 226.408 -993.436 249.84 18405
0.1305 0.13049 10304.5 77.2314 317.028 155.046 4492.43 189.141 -303.409 218.7 -887.811 240.663 18100
0.1315 0.131488 10113.6 75.208 3.8806 150.724 4363.71 183.11 308.626 212.108 -1065.88 233.787 19059
0.1325 0.132493 10530.2 77.6125 -320.38 154.499 4311.32 187.47 604.704 217.597 -1183.11 240.147 18957
0.1335 0.133491 10604.7 77.1356 -236.77 150.02 3514.51 183.327 825.677 213.363 -984.428 235.737 19468
0.1345 0.134507 10811.3 77.7778 14.2645 148.904 3038.69 182.915 354.136 213.167 -873.404 235.752 19953
0.1355 0.13551 10833.4 77.2374 99.9782 146.88 2809.02 182.192 -30.1453 211.804 -492.966 233.845 19956
0.1365 0.136499 10587.9 74.9375 103.581 142.685 2779.76 177.492 23.4658 206.049 -349.511 227.264 19723
0.1375 0.137496 10401.7 73.3154 301.386 142.131 3301.1 176.265 -15.6005 204.089 -345.672 224.647 20946
0.1385 0.138511 10215.6 71.3873 133.063 137.755 3075.74 172.629 -30.2445 199.275 78.993 218.854 20955
0.1395 0.139498 10064.4 69.9949 48.5675 136.776 3421.8 170.99 303.637 197.078 62.7587 216.138 20506
0.1405 0.140483 10055 69.2782 83.7687 134.044 3083.45 169.774 105.033 195.098 558.939 213.531 21447
0.1415 0.141484 9928.99 67.9373 -25.1946 131.428 3053.04 165.56 369.508 190.655 316.632 208.984 21771
0.1425 0.142494 10086.7 68.4041 -11.8524 130.968 2773.96 166.373 269.256 191.354 600.503 209.638 22470
0.1435 0.143509 9841.19 66.2682 218.861 126.594 2661.29 159.208 -216.067 183.904 149.398 202.109 22519
0.1445 0.144499 9788.72 65.6589 325.65 127.721 3153.08 162.341 -455.718 186.149 746.912 203.336 22218
0.1455 0.145505 9192.21 61.322 185.276 120.18 3193.52 151.266 -339.133 173.822 353.796 190.161 23559
0.1465 0.146507 9255.84 61.4004 39.3046 121.139 3393.91 153.097 375.385 175.459 566.775 191.509 23044
0.1475 0.147505 9299.58 61.3861 -67.4603 122.063 3660.67 153.287 88.835 175.809 356.094 192.004 23649
0.1485 0.148499 9269.6 60.6326 145.542 119.216 3324.66 149.298 192.262 171.76 167.819 188.085 23640
0.1495 0.149495 9162.56 59.6841 98.0299 118.861 3632.64 150.16 -48.5055 171.825 610.547 187.272 24457
0.1505 0.1505 8985.06 58.0372 151.46 114.657 3332.92 144.967 -273.575 166.075 580.137 181.205 24591
0.1515 0.151499 8878.98 57.1022 101.882 113.874 3575.9 143.045 126.703 163.96 368.178 178.961 25020
0.1525 0.152505 8861.5 56.5793 82.4477 112.585 3492.88 142.058 194.559 162.647 534.311 177.355 25297
0.1535 0.153501 8657.8 54.7158 -95.6697 106.849 2908.19 134.714 594.41 154.828 372.011 169.388 25452
0.1545 0.154504 8875.76 55.7155 49.5005 108.915 2981.96 138.801 165.723 158.857 812.092 173.258 26061
0.1555 0.155499 8521.34 53.1059 261.502 103.145 2732.65 129.234 -59.7763 149.002 101.292 163.473 26128
0.1565 0.156495 8342.76 51.7122 174.028 101.14 2823.87 128.511 -224.661 147.225 658.214 160.689 26331
0.1575 0.157497 8055.3 49.6651 74.0866 97.5925 2866.49 122.667 35.8555 140.952 274.239 154.2 27345
0.1585 0.158499 8169.62 49.9977 91.3106 97.7502 2771.46 123.261 131.331 141.604 362.86 154.901 26980
0.1595 0.159497 7825.66 47.7972 221.156 95.1629 3119.45 119.204 -148.086 136.807 218.603 149.49 27777
0.1605 0.1605 7600.33 46.1437 194.075 92.0994 3065.71 116.368 27.0226 133.099 523.307 145.005 28224
0.1615 0.161505 7493.2 45.2658 54.1527 90.8179 3144.31 114.931 146.246 131.272 598.675 142.819 28075
0.1625 0.162497 7475.71 44.6963 -19.9349 88.0176 2687.56 111.752 479.582 127.921 602.772 139.474 28590
0.1635 0.163499 7414.96 44.1179 32.4349 87.3979 2766.63 112.595 392.375 128.113 1134.96 138.972 29163
0.1645 0.164491 7308.84 43.1646 53.2507 84.9738 2575.41 110.039 226.637 125.099 1253.4 135.671 28996
0.1655 0.165505 7213.2 42.2979 175.494 82.7588 2401.35 107.61 -57.8544 122.277 1333.33 132.617 30777
0.1665 0.166507 7077.03 41.341 129.51 81.8076 2605.59 105.963 -129.059 120.362 1259.94 130.404 29211
0.1675 0.167499 6932.5 40.1249 -22.4012 77.993 2170.24 101.629 394.102 115.52 1300.71 125.362 30922
0.1685 0.168508 7014.73 40.3198 -155.443 77.9948 2103.57 101.38 271.677 115.418 1203.47 125.448 30867
0.1695 0.169499 7255.66 41.2437 -36.0425 77.1385 1494.33 99.5942 21.7082 114.319 771.448 125.234 30852
0.1705 0.170492 7310.29 41.3364 -32.4307 77.7535 1641.7 98.423 -31.3682 113.748 211.928 125.118 31257
0.1715 0.171495 7108.64 40.0484 227.041 76.0385 1805.28 95.0181 -576.36 110.2 -111.489 121.425 32608
0.1725 0.172509 6969.9 39.0683 264.039 74.506 1862.27 93.0488 -580.519 107.842 -100.81 118.76 32361
0.1735 0.173504 6822.29 38.1727 49.3376 74.1485 2239.68 90.147 9.16824 105.132 -784.591 116.38 32508
0.1745 0.174498 6647.46 36.9282 -19.0377 71.3427 2055.75 87.5023 400.108 101.837 -544.058 112.514 32791
0.1755 0.175498 6785.81 37.4422 43.1052 72.1573 2033.3 89.2865 337.777 103.608 -318.063 114.22 33633
0.1765 0.176501 6719.74 36.7968 -56.6541 70.3021 1820.03 88.3719 398.841 102.107 87.6542 112.219 33984
0.1775 0.177503 6697.01 36.4334 17.5667 69.3395 1717.12 88.6276 298.783 101.813 538.302 111.471 34069
0.1785 0.178498 6690.37 36.1496 138.256 68.1393 1520.25 88.0143 106.914 100.867 777.154 110.331 34536
0.1795 0.179504 6539.45 35.1918 81.9939 66.9173 1633.33 87.4644 -77.2198 99.6391 1162.77 108.492 35343
0.1805 0.180501 6513.52 34.9079 22.3405 67.1592 1854.65 87.0268 85.4074 99.2686 986.871 108.092 34990
0.1815 0.181505 6589.1 35.0869 19.9672 66.9088 1694.82 87.66 143.891 99.7304 1262.03 108.47 36243
0.1825 0.182502 6428.89 34.0324 101.23 64.9913 1708.51 83.3364 -133.815 95.5536 628.731 104.471 35694
0.1835 0.183504 6331.99 33.3874 132.344 64.2583 1809.47 83.3306 -182.092 95.0233 985.368 103.44 37087
0.1845 0.184506 6242.03 32.7333 103.883 63.0871 1836.65 80.2457 -203.253 92.1385 444.146 100.79 36651
0.1855 0.185507 6092.73 31.8308 134.306 61.936 1960.84 79.018 -132.268 90.4736 564.876 98.7246 37818
0.1865 0.18651 6029.43 31.2956 50.1641 60.5042 1834.71 76.6042 185.603 88.0579 320.773 96.3986 37267
0.1875 0.187501 5863.99 30.2833 15.5853 58.5842 1809.98 73.4288 -1.59082 84.7146 60.7706 92.9945 38334
0.1885 0.1885 5997.41 30.7818 -2.52607 59.3266 1764.72 75.4251 198.596 86.6188 412.162 94.7653 38223
