### header ###
fiducial parameters:
Omega_m = 0.31
Omega_nu = 0
Omega_de = 0.69
Omega_k = 0
H_0 = 100
w_de = -1
zeff = 0
beta = 0
fgrowth = 0
b_1 = 2
gamma = 0.55
Lx = 2000 Ly = 2000 Lz = 2000
nx = 600 ny = 600 nz = 600
xoffset = 6.37964 yoffset = 280.636 zoffset = 1.04512
bins = 400 dk = 0.001
kx_ny = 0.942478 ky_ny = 0.942478 kz_ny = 0.942478
############################
A(data) = 0.412262 (not used)
A(ran) = 0.411329 (used)
Ngal = 73499
weighted Ngal = 0
Nran = 2208341
weighted Nran = 0
SN(data) = 6220.24
SN(ran) = 203.973
SN(data+ran) = 6424.21
############################
13 columns: k_central k_mean P_0(k) sigma^{lin}_{P_0(k)} P^img_1(k) sigma^{lin}_{P_1(k)} P_2(k) sigma^{lin}_{P_2(k)} P^img_3(k) sigma^{lin}_{P_3(k)} P_4(k) sigma^{lin}_{P_4(k)} N_modes
### header ###
0.0005 0 0 0 0 0 0 0 0 0 0 0 0
0.0015 0 0 0 0 0 0 0 0 0 0 0 0
0.0025 0 0 0 0 0 0 0 0 0 0 0 0
0.0035 0.00314159 20241.7 40591 -64365.9 66384.1 -38980.6 65325.3 112338 109335 -47190.7 114044 3
0.0045 0.00444288 32149.2 23514.4 -53000.2 57245.9 33278 75780.7 -19085.5 83686.6 23159.9 87028.6 6
0.0055 0.0054414 36733.2 27585.1 -27383.4 72880.4 93803.3 101624 -92493.2 114230 47584.7 112991 4
0.0065 0.00628319 80685 42818.6 -121003 71164.9 -97715.9 75551.6 85329.4 109665 -116183 121064 3
0.0075 0.00736006 67016.9 21585.8 -48572.2 41388.1 12286.7 52617.8 5741.43 60506.5 8280.23 66252.1 24
0.0085 0.00888577 68148.2 18225.1 -24209.8 32639.4 5092.51 41309.1 11555.6 48324.2 882.514 53546 6
0.0095 0.00965136 100067 24093.6 -40203.2 41946.8 -7451.72 54500.1 -20417.6 63408.5 216.381 70164 27
0.0105 0.0105353 90585.3 19436.4 -21998.7 33837.5 -2335.9 45742 -20640.3 52245.8 16277.3 57342.6 16
0.0115 0.0116122 81522.6 16079.7 -19931.5 25502.7 -20918.2 35491 -19952.7 40834.8 11140.9 45308.3 36
0.0125 0.0129101 110891 19982.5 3018.29 34346.2 -2302.63 47258.4 -45061.9 53940.8 28924.8 58953.4 27
0.0135 0.0134747 107709 18296.7 -23387.4 28728 -29943.9 42896.1 -41062.4 47831.6 43244.5 52569.3 30
0.0145 0.0143945 96470.8 15293.4 -12522 26635.3 -4761.78 37273.1 -62620.8 42420.4 28823.6 45845.7 48
0.0155 0.0155669 102618 15208.6 -10977.4 26739.2 -371.066 39262.9 -51980.2 43512.7 60019.4 46811.2 27
0.0165 0.0164423 99794.5 13839.6 6623.35 25295.1 12778.5 36165.2 -45673.7 40329.4 56494.8 43254.8 88
0.0175 0.0173201 112307 15231.4 43192.4 28358.1 20461.8 41075.7 -51012.7 45582.7 89056.9 48689.8 30
0.0185 0.0184089 94508.5 11963.2 9294.7 24716.3 43015.1 35532.9 -12408.3 39061.1 81782.9 41005.1 87
0.0195 0.0194154 76495.7 9757.91 59289.6 19053.6 22959.4 25055.6 -29299.8 28558 33808.6 30810.3 60
0.0205 0.0203279 81568.9 9673.73 41295.5 20362.7 35488.6 29040.8 24804.9 31876.2 69774.5 33429 96
0.0215 0.0214382 63271.3 7618.33 52286.8 16890.5 34641.6 23330.5 29043.8 25703.5 46937.2 26865.5 91
0.0225 0.0225146 55693.8 6243.15 41602.4 12315.1 -619.359 17135.4 46957.7 19113.2 18902.4 20237.8 114
0.0235 0.0234139 44844.2 4828.26 34366.8 10360.7 16660.2 14017 31419.8 15589.6 17584 16413.2 108
0.0245 0.0244951 40029.4 4180.52 22158.3 7773.51 -10701.1 10632.7 49788.4 12362 -2140.19 13024.1 120
0.0255 0.0255301 35192.7 3195.27 6379.31 5656.23 -1750.01 7227.8 25608.6 8597.47 -4166.64 9398.73 135
0.0265 0.0263813 31554.2 2795.72 -8274.05 4894.34 1123.52 5687.63 24041.1 7142.48 -9861.89 7977.93 114
0.0275 0.0273319 39705.3 3457 -18988.7 6126.83 2020.19 6425.94 21255 8428.09 -24349.9 9724.69 172
0.0285 0.0285291 36688.9 3274.31 -27731.8 6697.95 20740.9 7240.91 11194.9 8747.62 -21831 10001.1 171
0.0295 0.0295749 47359.5 3827.11 -22824.5 7566.14 20258 8487.15 16810.6 10229.4 -18563 11550.4 228
0.0305 0.0305657 49985.6 3987.31 -17542.7 8559.38 39513.7 9662.42 11464.4 11259.4 -22906.5 12669.9 108
0.0315 0.0314063 52431.6 3841.43 -13253.1 7509.13 19796.6 8448.75 13077.6 10176.9 -21216 11523 213
0.0325 0.0325299 50757.9 3659.24 -1135.64 7703.65 33435.1 8862.07 12820.4 10334.5 -18523 11549.2 280
0.0335 0.0336972 58260.2 3910.3 6170.2 7349.54 12786 8692.8 8268.32 10351.7 -14505 11601.8 216
0.0345 0.034538 49465.4 3281.14 13199.7 6469.77 16632.7 7773.09 13271.9 9093.72 -9908.82 10069.8 183
0.0355 0.0355144 47470.1 3037.81 16403.7 5574.91 5030.47 6879.86 5504.62 8088.58 -5567.69 8989.11 306
0.0365 0.0365332 44718 2795.34 17305.4 4947.84 -992.343 6373.2 8777.28 7415.26 -300.683 8199.09 252
0.0375 0.0375948 44507.6 2699.92 16437.4 4539.61 -5295.43 6023.84 834.562 6981.71 3751.92 7749.63 291
0.0385 0.0385839 37778.4 2242.42 11122.6 3384.95 -14123.9 4667.94 3285.07 5465.61 1238.61 6129.71 340
0.0395 0.0396356 37433 2124.75 1647.41 3264.34 -10818.9 4323.19 -1130.48 5151.63 -2087.04 5800.39 294
0.0405 0.0405853 38587.8 2150.89 605.538 3340.74 -10242 4556.49 -13914.4 5348.74 2196.32 5960.1 303
0.0415 0.0414395 36433 1981.94 -6370.45 3120.5 -10031.9 3970.29 -5116.52 4816.21 -6586.18 5432.64 312
0.0425 0.0424945 39519.5 2118.87 -10691 3722.92 -1896.34 4916.47 -17830 5696.29 1822.18 6244.98 444
0.0435 0.0435897 42270.2 2251.14 -17734.7 4418.47 11261 5465.81 -13499 6333.49 -4457.86 6952.1 343
0.0445 0.04452 41704.5 2138.32 -8908.79 4125.83 10085.1 5287.1 -19331.1 6086.16 1888.4 6615.2 390
0.0455 0.0454709 43973.3 2211.45 -10482.4 4483.68 18318.5 5746.31 -11378.8 6531.78 5382.8 7061.49 456
0.0465 0.0465216 47411.9 2366.5 -5157.17 5076.38 29993.6 6568.14 -11605.9 7391.34 11035.9 7889.11 372
0.0475 0.0474847 44724.2 2144.52 -1888.44 4404.29 21883 5634.9 -7940.4 6395.37 6508.64 6903.49 495
0.0485 0.0484846 45981.6 2184.74 4518.8 4630.65 27698.7 5960.24 -4178.06 6722.12 9690.26 7205.34 478
0.0495 0.0494829 41799.8 1938.76 5255.86 4023.7 20893.2 5422.26 -1646.59 6054.28 18694 6433.84 492
0.0505 0.0504863 42535.2 1934.66 13258.7 3931.66 18512.9 4995.27 3224.65 5685.39 4482.36 6165.31 483
0.0515 0.0514399 41164 1834.26 10541.2 3731.97 17927.9 4966.51 -1505.49 5574.97 14822.4 5966.48 552
0.0525 0.0524122 36267.6 1577.97 11293.5 3076.73 10450.3 4142.4 1630.5 4651.71 12993.7 5007.39 528
0.0535 0.0534839 36066 1522.31 8761.33 2891.94 8161.61 3843.03 1616.91 4350.67 9151.8 4720.24 621
0.0545 0.0545145 34714.8 1436.64 8499.06 2659.71 5621 3578.69 -1675.36 4048.85 10016.3 4401.92 664
0.0555 0.0555212 32819.3 1335.25 6391.07 2533.37 7363.3 3458.69 664.842 3878.86 12609.6 4184.2 564
0.0565 0.0565692 32174 1272.71 4681.83 2263.39 1977.14 3068.49 1670.46 3482.71 8034.63 3809.47 735
0.0575 0.0575191 32390 1252.21 635.62 2197.36 1229.23 2911.4 -1341.7 3346.38 4467.97 3686.43 510
0.0585 0.0583686 32057.4 1223.64 4159.65 2232.68 4168.59 2948.78 1679.5 3368.67 5516.24 3687.18 720
0.0595 0.0594345 32631.3 1221.89 -3942.05 2179.18 2468.31 2833.27 769.364 3273.08 2751.55 3610.16 703
0.0605 0.0605127 32286.9 1186.29 318.767 2047.77 -253.075 2585.3 1188.69 3052.65 -2142.52 3407.75 900
0.0615 0.061563 33883.1 1230.01 -4415.74 2238.08 4380.19 2781.38 903.746 3264.37 -2410.99 3627.46 696
0.0625 0.0625445 32251.8 1151.48 -1906.77 2077.36 3357.42 2524.85 -3334.49 3002.25 -5397.43 3358.86 801
0.0635 0.0635353 35161.9 1236.32 -4321.94 2260.68 4896.3 2810.76 -1966.59 3294.37 -2492.67 3657.43 840
0.0645 0.0645579 34331.4 1190.1 -2403.72 2250.17 8120.78 2830.36 -2900.86 3276.62 134.709 3606.56 840
0.0655 0.0655503 36569.4 1250.88 -2729.61 2401.82 10254.9 3041.81 -2800.58 3501.09 1681.6 3836.61 859
0.0665 0.0665395 34297 1156.2 299.846 2235.03 10568.1 2779.17 -484.632 3216.54 -820.105 3539.43 870
0.0675 0.0674989 35469.5 1180.67 48.6153 2313.33 11995.8 2996.06 1735.82 3408.57 5935.59 3699.57 924
0.0685 0.0684965 35661.7 1172.16 4992 2278.65 10844.3 2998.24 1804.38 3395.86 8285.54 3676.44 900
0.0695 0.0694713 34720.2 1123.16 2123.37 2190.37 11294.7 2776.73 5361.08 3187.3 2088.43 3481.16 999
0.0705 0.0705149 34448.2 1099.9 6145.93 2106.59 8701.84 2731.68 5813.68 3118.83 4697.06 3396.83 1096
0.0715 0.0715703 32704.6 1023.28 3236.19 1928.14 7195.58 2471.37 4074.13 2842.12 2494.25 3114.15 1026
0.0725 0.0725247 31690.6 982.501 4316.6 1877.5 8241.18 2323.71 5286.45 2703.12 -2047.13 2982.3 987
0.0735 0.0735006 32687 995.254 2334.02 1896.56 8453.28 2397.67 2578.41 2765.66 1044.45 3036.06 1140
0.0745 0.0745236 31231.2 939.854 4092.81 1794.77 8236.23 2273.75 144.343 2619.11 1443.7 2872.85 1128
0.0755 0.0755584 30708.9 915.686 1442.49 1796.38 10663.9 2255.06 4929.21 2595.07 672.862 2839.28 1161
0.0765 0.076463 30869.5 911.958 5715.35 1785.77 10632.4 2200.11 -500.5 2548.59 -1631.91 2806.17 1096
0.0775 0.0774728 30527.8 892.327 3920.71 1795.66 12873.8 2282.31 1973.6 2601.82 3051.67 2825.57 1260
0.0785 0.0785174 28581.3 825.834 5882.21 1644.53 10761.8 2127.79 1298.15 2415.22 5106.92 2614.75 1275
0.0795 0.0794712 29440.2 840.388 5393.66 1686.92 11971.1 2151.9 2438.95 2451.17 3341.06 2660.32 1182
0.0805 0.0804445 27234.5 772.068 5832.79 1572.32 12264.7 2024.87 1116.12 2294.45 4825.48 2477.23 1356
0.0815 0.0815011 26556.2 742.173 4437.05 1512.7 11951.3 1967.59 2123.91 2222.68 5963.36 2392.47 1399
0.0825 0.0825294 25599.9 710.215 5563.5 1458.58 12114.5 1895.52 1328.32 2139.6 5912.85 2300.6 1428
0.0835 0.0835202 26386.8 724.187 3850.08 1509.5 14058.6 1956.7 200.474 2206.43 6140.92 2367.65 1404
0.0845 0.0845414 24099 655.876 4428.65 1374.52 13390.1 1763.23 399.124 1992.51 4383.97 2142.79 1389
0.0855 0.0855269 23862.4 642.461 2685.74 1360.06 14087 1757.42 923.005 1979.56 5402.07 2120.33 1584
0.0865 0.0865179 23396.5 625.645 3509.55 1333.63 14310.1 1738.08 -618.229 1952.31 6682.78 2083.04 1416
0.0875 0.0874839 22962.4 611.706 3423.66 1325.23 15612.5 1717.88 -1452.94 1928.98 6212.58 2055.31 1507
0.0885 0.0885022 22431 581.51 2430.87 1219.86 12426.1 1589.05 46.7027 1788.15 5934.96 1913.81 1614
0.0895 0.0894643 21566.9 563.396 1863.94 1232.7 15248.9 1621.22 -995.858 1812.61 7837.27 1919.54 1596
0.0905 0.0904589 21640 561.641 1902.51 1240.31 16063.4 1631.3 918.307 1822.05 8006.58 1926.42 1644
0.0915 0.0915249 20975.6 532.866 -111.795 1154.3 13879 1529.05 288.537 1708.17 8270.9 1808.64 1863
0.0925 0.0925326 21051.1 533.024 1026 1170.93 15164.2 1540.69 2658.19 1721.93 7683.02 1821.71 1684
0.0935 0.0935199 20417.5 509.923 -190.035 1112.02 14229.3 1458.29 3543.81 1632.86 6923 1730.97 1722
0.0945 0.0945255 21400.9 527.607 954.464 1141.67 14342.9 1482.73 5452 1666.05 5712.61 1773.05 1863
0.0955 0.0955145 19951.4 487.161 697.89 1048.38 13373 1326.4 6544.41 1502.21 2198.69 1612.68 1788
0.0965 0.0965093 20411.1 488.914 909.103 1030.99 12100.7 1296.32 6647.69 1475.19 1338.63 1592.08 1968
0.0975 0.0975428 19920.3 469.133 2024.07 960.759 9488.93 1203.41 7897.94 1379.47 324.298 1496.24 1861
0.0985 0.0985169 19139.9 446.425 789.236 914.295 9699.44 1102.16 6337.56 1277.78 -2893.21 1404.85 2064
0.0995 0.0995274 19248.5 440.89 781.422 879.364 7996.15 1048.74 5723.93 1227.59 -3868.45 1359.75 1872
0.1005 0.100476 18692.5 421.856 1748.05 833.171 7002.45 1000.49 4344.61 1169.65 -3280.7 1295.36 1971
0.1015 0.101504 18470.2 411.973 485.879 808.383 6738.18 957.801 3541.62 1126.85 -4123.21 1254.88 2340
0.1025 0.102548 18095.4 398.661 516.703 779.453 6365.44 929.277 2694.68 1091.12 -3562.52 1213.61 1998
0.1035 0.103469 18135.5 396.243 1575.95 776.582 6493.13 920.748 1959.99 1082.39 -3995.28 1206.04 1987
0.1045 0.104462 16764.6 360.164 1263.95 688.638 4615.27 833.105 1574.24 977.492 -2469.02 1085.98 2364
0.1055 0.105482 17819.5 381.373 2020.83 748.822 6358.19 907.467 1685.49 1057.23 -2306.55 1169.51 2244
0.1065 0.106506 15856.5 333.622 2150.82 615.873 2582.94 744.232 1636.95 881.779 -2805.58 984.814 2265
0.1075 0.107496 15560.6 324.246 2494.14 603.236 2818.35 752.608 1613.77 877.391 -751.183 970.368 2484
0.1085 0.108477 15833.6 326.72 2213.32 604.835 2698.81 742.541 1577.93 872.812 -1809.93 970.232 2128
0.1095 0.109449 14850.2 303.049 2011.6 542.8 1128.9 667.993 1650.99 791.221 -1979.99 883.268 2487
0.1105 0.110438 13594.7 273.855 1228.94 466.325 -621.117 596.684 617.604 702.39 -485.922 783.488 2388
0.1115 0.111467 14600 292.105 813.697 507.175 -32.1541 614.303 1221.69 740.102 -3078.21 833.202 2790
0.1125 0.112507 13855.2 273.868 230.048 475.044 49.6842 595.023 573.163 704.473 -1246.36 787.214 2448
0.1135 0.113512 13945.7 274.028 -0.662293 462.343 -1044.3 564.464 806.249 683.353 -2903.72 770.962 2703
0.1145 0.11449 13798.3 267.976 41.1868 466.194 157.492 581.758 154.605 689.458 -1377.45 770.786 2608
0.1155 0.115518 14363.4 276.8 -181.01 484.719 389.189 595.286 283.539 709.913 -2160.83 795.841 2730
0.1165 0.116537 13295.8 253.929 504.953 444.745 377.458 551.272 -190.045 654.313 -1556.41 731.888 2883
0.1175 0.117525 14027 265.415 423.546 461.914 181.573 580.235 -18.305 685.3 -1059.54 764.939 2640
0.1185 0.118508 13739.3 257.852 466.468 455.46 708.88 569.579 198.297 671.538 -1059.4 748.609 2976
0.1195 0.119557 13160.2 244.992 785.556 422.252 -168.175 530.775 -333.121 628.362 -1088.52 702.317 2833
0.1205 0.120525 13106 241.953 721.271 420.627 148.036 530.985 -1023.21 625.93 -745.851 697.874 2988
0.1215 0.1215 13235.9 242.285 632.462 415.909 -237.132 540.386 -1373.43 630.168 468.899 699.566 2808
0.1225 0.122504 13123.1 238.434 405.911 421.63 735.857 534.269 -1792 626.223 -341.295 695.426 3135
0.1235 0.123517 12901.6 232.619 -174.746 417.285 1181.82 533.83 -1993.24 620.951 282.648 686.307 3180
0.1245 0.124512 12911 231.532 765.896 419.743 1590.86 538.978 -2748.09 625.002 700.184 688.495 2994
0.1255 0.125484 12893.2 229.176 449.823 423.946 2275.14 547.115 -1614.93 629.788 1212.9 691.055 3115
0.1265 0.126507 12785.3 225.683 869.293 418.84 2392.17 535.544 -1696.93 618.498 784.876 679.786 3444
0.1275 0.127489 12457.6 219.137 1062.39 419.744 3440.68 538.117 -1626.82 617.14 1300.98 674.088 3168
0.1285 0.128528 12182.7 212.403 1985.62 395.038 2336.22 499.839 -1241.04 579.413 312.17 638.392 3501
0.1295 0.129511 11918.8 206.159 1589.8 389.707 2750.93 491.04 942.876 568.05 108.841 625.014 3264
0.1305 0.130472 11990.7 205.363 1328.36 382.457 2361.39 480.976 -916.097 558.685 -26.5256 616.492 3304
0.1315 0.131461 11175.9 189.271 922.858 342.513 1266.03 436.372 676.629 507.131 170.079 560.549 3519
0.1325 0.132468 11488.5 193.523 1355.89 353.863 1632.3 440.399 98.1439 515.895 -731.717 572.642 3648
0.1335 0.133515 11329.8 189.671 437.025 344.193 1378.72 411.01 1165.1 492.088 -2560.11 552.668 3846
0.1345 0.134528 11269 186.772 -143.304 343.342 1821.71 422.823 -34.0193 496.992 -1117.51 552.733 3504
0.1355 0.135518 11088.8 182.398 -61.665 328.26 1126.17 398.124 120.595 473.995 -1909.19 530.938 3735
0.1365 0.136504 11644.4 190.34 -396.37 343.051 1225.1 412.212 356.59 492.812 -2378.16 553.226 3856
0.1375 0.137516 11563.2 188.282 -385.819 352.399 2488.25 420.919 -408.655 499.239 -2358.87 558.493 3642
0.1385 0.138497 11299.9 182.048 -88.3728 335.596 1922.4 408.798 183.609 482.537 -1564.23 538.004 4023
0.1395 0.139481 11548.8 185.386 -887.202 348.239 2560.72 421.467 -866.83 496.595 -1786.05 553.088 3684
0.1405 0.140479 11771.9 187.276 213.198 355.58 2979.99 445.402 -175.752 515.944 -75.6195 568.225 4284
0.1415 0.141535 11274.7 178.249 135.984 340.365 3017.92 430.087 783.3 495.995 381.763 544.371 4063
0.1425 0.142517 11436.8 179.603 648.048 343.427 3090.2 435.482 338.122 501.331 572.128 549.629 4122
0.1435 0.143504 11690.1 182.367 437.426 348.681 3122.44 446.529 1284.5 512.298 1057.61 560.038 4056
0.1445 0.144522 11111.1 172.492 819.136 330.702 3025.95 419.218 1925.81 482.827 484.24 528.813 4311
0.1455 0.145478 10942.5 168.421 1351.99 314.959 2094.92 412.381 1739.17 471.019 1711.79 513.994 4140
0.1465 0.14651 11121.4 169.854 1071.38 316.058 2011.39 405.791 2229.52 467.847 726.809 513.227 4582
0.1475 0.147542 10585.9 160.354 1275.97 293.397 1411.93 377.276 1746.87 435.976 578.564 479.644 4431
0.1485 0.148519 10480.7 157.574 973.422 286.039 1200.26 362.217 1931.59 422.255 -152.513 466.807 4260
0.1495 0.149473 10307 153.475 694.931 272.637 650.763 355.302 1229.46 410.558 841.274 452.752 4536
0.1505 0.150519 10213.1 151.283 848.149 277.722 1551.38 353.617 700.559 409.794 275.187 451.91 4719
0.1515 0.151511 9926.52 145.747 309.066 261.365 907.717 337.08 822.4 390.442 541.408 430.954 4554
0.1525 0.152489 9997.43 145.792 338.414 261.362 910.244 336.231 571.637 389.872 449.04 430.642 4720
0.1535 0.15349 9744.27 141.347 561.827 257.398 1279.81 332.455 542.811 383.545 755.971 422.103 4599
0.1545 0.154486 9388.75 135.376 390.83 248.381 1428.92 317.893 777.678 367.663 450.847 404.944 5064
0.1555 0.155482 9698.03 138.712 454.531 248.799 893.842 319.982 423.947 371.014 431.503 409.817 4638
0.1565 0.156446 9406.92 133.795 603.418 242.178 1083.94 311.785 465.674 360.645 545.357 397.633 4896
0.1575 0.157497 9242.26 130.603 490.105 235.23 951.065 295.643 403.403 346.061 -375.814 384.099 5383
0.1585 0.1585 9118.72 127.893 525.271 224.512 341.38 292.426 -29.4789 338.691 644.057 374.467 5076
0.1595 0.159469 9009.43 125.755 798.282 225.884 861.211 287.067 -80.8966 334.517 11.217 370.47 4734
0.1605 0.160487 8833.74 122.355 535.006 213.535 202.53 278.021 -226.092 322.499 553.858 356.952 5715
0.1615 0.161509 8938.91 123.162 458.652 221.664 918.565 287.582 -523.644 331.952 765.881 365.689 5136
0.1625 0.162495 8578.88 117.532 923.262 201.905 -153.348 264.931 -311.775 307.298 637.023 340.503 5292
0.1635 0.16349 8639.7 117.539 317.54 210.299 755.543 273.537 -583.747 315.782 766.326 348.026 5419
0.1645 0.164517 8608.09 116.315 429.142 204.085 312.538 266.532 57.0032 308.354 690.053 340.757 5838
0.1655 0.165537 8675.94 116.575 287.888 207.135 600.225 273.112 -181.405 313.794 1166.65 345.267 5436
0.1665 0.166522 8199.45 109.507 149.583 195.451 663.501 255.202 -463.783 294.246 823.837 324.166 5331
0.1675 0.167481 8548.89 113.441 -97.7651 199.456 364.881 262.425 376.298 302.468 959.55 333.577 5820
0.1685 0.168494 8653.36 114.505 167.251 211.182 1428.01 279.628 -95.7909 318.545 1721.17 347.761 5626
0.1695 0.169489 8289.49 109.015 -78.5494 199.228 1164.81 265.559 431.253 302.2 1791.61 329.974 5883
0.1705 0.170499 8445.92 110.533 318.118 200.595 1003.92 269.927 995.528 306.443 2070.97 334.284 5952
0.1715 0.171509 8495.34 110.628 394.481 202.569 1200.45 273.063 892.722 309.316 2255.95 336.744 6108
0.1725 0.172508 8184.71 106.143 466.248 194.758 1172.32 262.859 1439.17 297.69 2215.37 323.725 5727
0.1735 0.173498 8124.21 104.835 416.616 182.297 49.6386 252.788 1902.74 285.771 2491.68 312.14 6342
0.1745 0.174509 8032.07 102.989 286.791 183.142 507.305 251.325 1773.23 284.287 2399.32 309.833 6208
0.1755 0.175516 7854.74 100.049 51.4174 176.715 397.523 244.778 1234.58 275.909 2625.61 300.749 5991
0.1765 0.176497 7833.96 99.2075 -327.436 168.78 -279.85 235.442 1307.64 266.272 2410.36 291.958 6540
0.1775 0.177517 8087.87 101.892 -537.811 178.791 305.664 247.618 1197.82 279.418 2664.26 304.994 6390
0.1785 0.178518 8003.81 100.491 -351.829 183.85 1112.39 254.314 872.119 285.303 3113.29 309.026 6456
0.1795 0.179514 8029.61 100.315 -562.743 180.284 763.454 250.748 1297.57 281.522 3123.18 305.59 6319
0.1805 0.180483 8215.84 101.722 -287.879 181.179 600.946 250.56 848.827 282.14 2823.95 307.239 6708
0.1815 0.181489 8155.09 100.68 358.672 184.667 1153.07 253.206 1419.31 285.025 2807.39 308.978 6528
0.1825 0.182495 7970.18 97.7173 372.38 174.58 601.132 241.75 1232.02 272.027 2778.93 295.892 6777
0.1835 0.183506 8124.24 98.8924 565.378 175.745 501.973 240.385 1173.42 272.04 2304.47 296.926 7224
0.1845 0.184526 7851.55 95.0431 674.148 167.763 362.446 230.922 660.884 260.807 2382.62 284.8 6612
0.1855 0.185489 7904.8 95.0382 663.49 164.97 78.9297 226.478 -160.127 256.761 2139.65 281.466 6751
0.1865 0.186488 7576.09 90.7406 856.745 155.201 -203.058 215.202 -100.218 243.525 2198.85 267.243 7302
0.1875 0.187497 7944.55 94.8397 463.889 165.905 226.897 233.943 -466.625 261.961 3202.13 285.354 7152
0.1885 0.188526 7268.96 86.36 732.064 150.122 110.364 209.645 -1009.29 236.071 2573.84 257.798 7203
0.1895 0.189514 7516.35 89.1981 662.76 159.585 609.93 226.38 -851.733 252.25 3581 273.223 7392
0.1905 0.190484 7362.19 86.9082 777.467 153.062 309.451 218.73 -529.253 243.414 3553.04 264.229 6880
0.1915 0.191498 7256.27 85.1315 453.987 152.476 608.949 216.033 -785.84 240.788 3410.75 260.803 7857
0.1925 0.192538 7025.86 82.2994 682.835 149.176 778.519 212.663 -652.907 236.143 3695.29 254.932 7824
